WLMLTAID02
File version	8
Version	6	4140	6491	001
Frames	1
Measurements	3677
StartTime	19.12.2019, 15:28:59.438
EndTime	19.12.2019, 15:30:28.184

[General settings]
LTWH	0	0	1920	1040
Unit	0
Power Unit	0
StatCnt	10
RxM	1
KxM	2
KxL	2
FxMM	10000
TxMM	600
TxWM	1
TxW1	0D1663AB9E7A40044057FAA9FEB748F200000000000000000000000000000000000000000000000000000000000000000000000000000000000000000000000000000000000000000000000000000000963A3F93BE2A3BF3409E3E5875756684E9FAA7B168431EF33FC3F5342A05BB125453A2ED86971AF33FF6A008BD38B852416F98D65AA9C60440665E99DEAF624221B5009ACEAC2704

[Frame 1]
cmi	42
type	6
ver	4140
pmptype	-1
pmp	-1
Caption	WS/6-4140: Signal 1  Wavelength, vac.  [nm]
LTWH	0	12	1920	949
Docked	1
Color	14217460
LColor	-2147483640
KyM	2
yMM	-13	-13
Exp	0
ExpC	1

[Measurement data]
26	0
Time  [ms]	Signal 1  Wavelength, vac.  [nm]
33.2037	1073.36690
66.3759	1073.36686
99.3582	1073.36685
132.2704	1073.36687
165.4119	1073.36685
198.3037	1073.36684
231.5224	1073.36684
264.4955	1073.36680
297.491	1073.36683
330.5521	1073.36685
363.5681	1073.36687
396.5145	1073.36682
429.769	1073.36684
462.684	1073.36685
495.7532	1073.36686
528.8377	1073.36685
561.8553	1073.36685
594.8914	1073.36686
627.9607	1073.36691
661.0223	1073.36686
694.0093	1073.36684
727.1716	1073.36687
760.1303	1073.36688
793.1386	1073.36687
826.1515	1073.36690
859.2456	1073.36690
892.399	1073.36685
925.4226	1073.36684
958.4429	1073.36688
991.4898	1073.36688
1024.7362	1073.36685
1057.6546	1073.36685
1090.713	1073.36687
1123.7755	1073.36684
1156.6384	1073.36685
1189.775	1073.36685
1222.7649	1073.36688
1255.8541	1073.36679
1288.8976	1073.36681
1322.0319	1073.36682
1354.9816	1073.36679
1388.0057	1073.36683
1421.1363	1073.36685
1454.1422	1073.36684
1487.271	1073.36683
1520.2763	1073.36684
1553.2656	1073.36684
1586.4776	1073.36684
1619.391	1073.36679
1652.5066	1073.36686
1685.4545	1073.36682
1718.7141	1073.36684
1751.6435	1073.36679
1784.785	1073.36682
1817.7835	1073.36681
1850.7447	1073.36682
1883.7697	1073.36681
1916.8736	1073.36684
1949.871	1073.36678
1982.9401	1073.36675
2016.057	1073.36682
2049.1825	1073.36679
2082.0575	1073.36680
2115.2415	1073.36676
2148.2576	1073.36680
2181.2315	1073.36678
2214.2574	1073.36684
2247.5377	1073.36679
2280.4888	1073.36678
2313.4833	1073.36679
2346.4056	1073.36679
2379.453	1073.36679
2412.506	1073.36676
2445.5254	1073.36676
2478.7404	1073.36680
2511.8078	1073.36675
2544.8572	1073.36677
2577.9061	1073.36679
2611.4696	1073.36681
2643.877	1073.36675
2677.0537	1073.36679
2709.8953	1073.36676
2743.0564	1073.36675
2776.1073	1073.36672
2809.0506	1073.36677
2842.2999	1073.36674
2875.1773	1073.36676
2908.36	1073.36681
2941.2811	1073.36677
2974.3064	1073.36679
3007.4298	1073.36678
3040.5863	1073.36671
3073.565	1073.36675
3106.5905	1073.36679
3139.5132	1073.36675
3172.52	1073.36670
3205.6663	1073.36677
3238.7003	1073.36675
3280.5311	1073.36674
3304.9085	1073.36671
3337.7927	1073.36676
3370.9929	1073.36672
3404.052	1073.36673
3437.1773	1073.36674
3474.7637	1073.36676
3503.2723	1073.36672
3536.1816	1073.36684
3569.2396	1073.36676
3602.274	1073.36675
3635.402	1073.36671
3668.3902	1073.36672
3701.3919	1073.36674
3734.3832	1073.36679
3767.4843	1073.36677
3800.6516	1073.36677
3833.6079	1073.36677
3866.7693	1073.36674
3899.7385	1073.36680
3932.6808	1073.36676
3965.7762	1073.36679
3998.8635	1073.36674
4031.8265	1073.36677
4064.9863	1073.36679
4098.0548	1073.36672
4131.2822	1073.36676
4164.1797	1073.36672
4197.1108	1073.36675
4230.2808	1073.36673
4263.3628	1073.36673
4296.1792	1073.36674
4330.5459	1073.36676
4362.3867	1073.36674
4395.4624	1073.36674
4428.4958	1073.36673
4461.4307	1073.36675
4494.5547	1073.36669
4527.513	1073.36677
4560.6101	1073.36674
4593.6233	1073.36669
4626.687	1073.36671
4659.6571	1073.36668
4692.8947	1073.36680
4725.9106	1073.36675
4759.0181	1073.36670
4791.8947	1073.36669
4824.9855	1073.36674
4858.1789	1073.36676
4891.1622	1073.36676
4924.2573	1073.36672
4957.2383	1073.36669
4990.3614	1073.36675
5023.2977	1073.36672
5056.3298	1073.36674
5089.3502	1073.36671
5122.485	1073.36676
5155.5335	1073.36670
5188.6244	1073.36668
5221.509	1073.36672
5254.6351	1073.36670
5287.6273	1073.36670
5320.852	1073.36672
5353.8648	1073.36672
5386.817	1073.36674
5419.9552	1073.36673
5452.8789	1073.36666
5485.978	1073.36673
5519.1747	1073.36669
5552.163	1073.36674
5585.0486	1073.36673
5618.1818	1073.36672
5651.2438	1073.36668
5684.2656	1073.36673
5717.3933	1073.36673
5750.3587	1073.36675
5786.8648	1073.36672
5816.5107	1073.36671
5849.3944	1073.36673
5882.53	1073.36672
5915.6379	1073.36673
5948.7678	1073.36667
5981.8613	1073.36673
6014.8688	1073.36671
6047.8839	1073.36669
6080.7451	1073.36671
6113.8445	1073.36664
6146.8023	1073.36667
6179.9497	1073.36671
6212.9199	1073.36668
6246.0102	1073.36668
6279.0178	1073.36665
6312.025	1073.36673
6345.2038	1073.36671
6378.3756	1073.36676
6411.2558	1073.36673
6444.4446	1073.36670
6477.4118	1073.36668
6510.3737	1073.36676
6543.3713	1073.36673
6576.3732	1073.36677
6609.4461	1073.36672
6642.5725	1073.36669
6675.6083	1073.36670
6708.6737	1073.36670
6741.7234	1073.36673
6774.8041	1073.36672
6807.7337	1073.36670
6840.8863	1073.36667
6874.0193	1073.36668
6907.0438	1073.36675
6940.1376	1073.36668
6973.2317	1073.36667
7006.1381	1073.36675
7039.205	1073.36669
7072.2509	1073.36677
7108.5083	1073.36676
7138.3467	1073.36677
7171.3186	1073.36676
7204.2809	1073.36674
7237.4932	1073.36672
7270.618	1073.36675
7303.6558	1073.36673
7336.6616	1073.36675
7369.8859	1073.36676
7402.9056	1073.36678
7435.8868	1073.36676
7468.9502	1073.36672
7501.7957	1073.36675
7535.0374	1073.36677
7567.9613	1073.36676
7600.9001	1073.36675
7634.0556	1073.36673
7666.9971	1073.36673
7700.0128	1073.36673
7733.3027	1073.36672
7766.524	1073.36675
7799.3814	1073.36670
7832.3688	1073.36679
7865.3156	1073.36677
7898.494	1073.36669
7931.5282	1073.36676
7964.7361	1073.36674
7997.5511	1073.36677
8030.5503	1073.36676
8063.7611	1073.36676
8096.8582	1073.36676
8129.8847	1073.36679
8162.8195	1073.36674
8195.7895	1073.36674
8228.8493	1073.36674
8262.0163	1073.36675
8295.0422	1073.36679
8328.3636	1073.36680
8361.2192	1073.36670
8394.0872	1073.36678
8427.1351	1073.36672
8460.1448	1073.36676
8493.169	1073.36674
8526.3284	1073.36678
8559.4817	1073.36674
8592.4818	1073.36678
8625.5239	1073.36677
8658.4767	1073.36672
8691.7046	1073.36674
8724.6689	1073.36678
8757.7662	1073.36678
8790.7818	1073.36671
8823.7769	1073.36679
8856.9762	1073.36679
8889.9215	1073.36678
8923.0493	1073.36680
8956.0495	1073.36674
8989.1059	1073.36672
9022.1203	1073.36676
9055.1414	1073.36673
9088.2626	1073.36680
9121.3864	1073.36677
9154.2028	1073.36673
9187.3533	1073.36670
9220.263	1073.36675
9253.4411	1073.36683
9286.5787	1073.36679
9319.3931	1073.36680
9352.5748	1073.36674
9385.5107	1073.36671
9418.7304	1073.36677
9451.8137	1073.36680
9484.6532	1073.36674
9517.7837	1073.36678
9550.8625	1073.36675
9583.7705	1073.36671
9616.9259	1073.36672
9649.9244	1073.36673
9683.0819	1073.36676
9715.9665	1073.36679
9749.174	1073.36671
9782.1748	1073.36671
9815.1488	1073.36672
9848.1735	1073.36672
9881.4232	1073.36674
9914.4007	1073.36670
9947.4804	1073.36674
9980.394	1073.36675
10013.5116	1073.36673
10046.5478	1073.36680
10079.7319	1073.36675
10112.5471	1073.36673
10145.7461	1073.36672
10178.8535	1073.36671
10211.7329	1073.36678
10244.9036	1073.36674
10277.8641	1073.36678
10311.0501	1073.36675
10343.8904	1073.36671
10376.9281	1073.36670
10410.1033	1073.36678
10443.1481	1073.36675
10476.1397	1073.36677
10509.1724	1073.36673
10542.3643	1073.36667
10575.4072	1073.36670
10612.3654	1073.36671
10641.4227	1073.36673
10674.4236	1073.36670
10707.4228	1073.36674
10740.5424	1073.36668
10773.542	1073.36672
10806.6419	1073.36673
10839.7226	1073.36670
10872.6673	1073.36675
10905.8721	1073.36672
10938.88	1073.36676
10971.9155	1073.36675
11004.9245	1073.36673
11037.9738	1073.36674
11071.04	1073.36673
11104.0522	1073.36668
11137.198	1073.36669
11170.2	1073.36674
11203.3495	1073.36676
11236.3905	1073.36675
11269.4789	1073.36674
11302.3481	1073.36670
11335.4479	1073.36674
11368.4663	1073.36672
11401.374	1073.36668
11434.4122	1073.36672
11467.632	1073.36669
11500.6692	1073.36672
11533.6392	1073.36668
11566.7597	1073.36673
11599.9219	1073.36668
11632.9209	1073.36671
11665.7747	1073.36674
11699.0463	1073.36671
11732.0463	1073.36666
11765.0629	1073.36672
11798.1028	1073.36674
11831.2319	1073.36667
11864.3631	1073.36645
11897.3812	1073.35719
11930.2457	1073.33950
11963.3522	1073.23666
11996.2541	1073.19921
12033.2966	1073.16360
12070.5082	1073.18844
12107.471	1073.01216
12144.6327	1073.00906
12181.4401	1072.84425
12218.5189	1072.79985
12255.5342	1072.66601
12292.6274	-4
12329.7694	-4
12366.8521	-4
12391.2766	1072.14014
12412.0208	1074.10337
12435.8988	1071.99711
12469.2141	1071.78495
12489.0089	1071.62107
12509.7628	1071.63783
12529.5228	1071.44961
12549.6489	1071.26039
12569.5216	1071.24730
12589.8901	1071.07934
12610.8881	1070.91587
12631.2508	1070.93286
12653.0236	1070.77655
12674.3859	1070.59566
12695.5196	1070.44656
12717.274	1070.46364
12737.437	1062.71922
12757.6714	1070.24351
12780.0223	1070.24066
12801.0466	1070.22836
12821.7722	1070.08912
12843.7607	1070.06244
12862.6708	-3
12881.6546	1070.07960
12901.5891	1070.06027
12920.8547	1070.08962
12939.9312	1070.08250
12961.2613	1070.01901
12981.7719	1069.93256
13005.0561	-4
13026.6135	-4
13047.1263	-4
13066.4726	1069.90931
13085.8945	1069.90576
13104.7733	1069.90251
13122.9782	1069.89994
13142.4196	1069.89794
13163.0082	1069.89613
13182.3615	1069.89436
13201.0879	1069.89343
13220.0196	1069.89257
13239.1492	1069.89204
13257.9618	1069.89114
13277.0504	1069.89092
13296.1473	1069.89092
13315.462	1069.89109
13334.4194	1069.89112
13353.8822	1069.89113
13373.0652	1069.89148
13396.1974	1069.89145
13415.5187	1069.89185
13435.0455	1069.89183
13454.5221	1069.89184
13474.7109	1069.89216
13497.7617	1069.89216
13517.3081	1069.89250
13537.1716	1069.89288
13556.4635	1069.89283
13577.1525	1069.89328
13597.1479	1069.89327
13617.5294	1069.89369
13637.8735	1069.89368
13664.1475	1069.89425
13683.7745	1069.89422
13705.0121	1069.89423
13724.6376	1069.89424
13747.7484	1069.89443
13767.5238	1069.89444
13787.1764	1069.89444
13806.1705	1069.89450
13829.4592	1069.89466
13849.9338	1069.89467
13869.2942	1069.89468
13888.6703	1069.89525
13907.6817	1069.89525
13927.2631	1069.89526
13946.3891	1069.89527
13965.7712	1069.89527
13985.3622	1069.89526
14004.5187	1069.89527
14023.8533	1069.89527
14043.019	1069.89501
14061.9199	1069.89501
14081.2484	1069.89501
14104.3874	1069.89501
14124.4016	1069.89528
14143.7598	1069.89531
14162.8876	1069.89525
14182.0085	1069.89529
14201.1219	1069.89531
14220.0954	1069.89531
14239.0184	1069.89531
14260.4865	1069.89527
14280.0255	1069.89529
14300.2946	1069.89515
14321.1463	1069.89505
14354.3878	1069.89505
14374.2757	1069.89505
14393.6686	1069.89533
14413.2761	1069.89524
14432.4195	1069.89533
14451.4617	1069.89531
14470.8871	1069.89534
14490.2946	1069.89531
14509.8019	1069.89531
14545.0203	1069.89532
14564.7758	1069.89532
14585.3463	1069.89508
14625.1524	1069.89507
14645.2771	1069.89508
14664.419	1069.89508
14683.9613	1069.89508
14702.9627	1069.89508
14722.2698	1069.89508
14743.6795	1069.89509
14763.0206	1069.89509
14782.1463	1069.89509
14801.5236	1069.89509
14820.7685	1069.89509
14841.6442	1069.89509
14860.5007	1069.89509
14879.5182	1069.89509
14899.387	1069.89509
14921.2487	1069.89509
14940.3867	1069.89509
14959.6379	1069.89509
14993.71	1069.89509
15013.383	1069.89510
15033.0856	1069.89510
15052.248	1069.89510
15071.6459	1069.89510
15090.6683	1069.89510
15109.5644	1069.89510
15128.7697	1069.89510
15152.5425	1069.89510
15172.1685	1069.89510
15191.2591	1069.89511
15210.3345	1069.89510
15229.3998	1069.89511
15248.6466	1069.89511
15267.5185	1069.89511
15286.7101	1069.89511
15305.9291	1069.89511
15325.3945	1069.89511
15344.9449	1069.89511
15364.1365	1069.89511
15384.2706	1069.89511
15404.2697	1069.89511
15424.0236	1069.89511
15443.4403	1069.89512
15462.334	1069.89512
15481.5543	1069.89512
15501.7936	1069.89512
15521.5236	1069.89512
15540.5131	1069.89512
15562.5173	1069.89512
15581.8844	1069.89512
15600.8326	1069.89512
15619.8853	1069.89512
15639.616	1069.89513
15659.7927	1069.89513
15680.3983	1069.89513
15700.9948	1069.89513
15721.5227	1069.89513
15743.208	1069.89513
15761.8938	1069.89513
15783.6375	1069.89513
15803.6157	1069.89513
15822.8939	1069.89513
15841.9571	1069.89513
15863.987	1069.89514
15883.0437	1069.89513
15902.2724	1069.89513
15925.5448	1069.89514
15945.2573	1069.89514
15964.2932	1069.89514
15998.3745	1069.89514
16018.8495	1069.89514
16039.2689	1069.89514
16074.5062	1069.89514
16094.0411	1069.89514
16113.3326	1069.89514
16137.8805	1069.89514
16157.5192	1069.89514
16180.3854	1069.89515
16199.8818	1069.89515
16219.1157	1069.89515
16237.9755	1069.89515
16270.7763	1069.89515
16294.4745	1069.89515
16313.7688	1069.89515
16334.143	1069.89515
16353.8814	1069.89515
16373.4981	1069.89515
16393.1891	1069.89515
16412.5034	1069.89515
16436.9382	1069.89515
16456.1672	1069.89515
16475.34	1069.89515
16494.6783	1069.89516
16513.8856	1069.89516
16533.5408	1069.89516
16554.0032	1069.89516
16573.667	1069.89516
16595.043	1069.89516
16615.4162	1069.89516
16634.8337	1069.89516
16653.9584	1069.89516
16673.2379	1069.89516
16692.3626	1069.89516
16712.2701	1069.89517
16731.2661	1069.89516
16751.1673	1069.89516
16770.7682	1069.89517
16791.1885	1069.89517
16810.664	1069.89517
16833.5071	1069.89517
16861.4977	1069.89517
16881.085	1069.89517
16899.933	1069.89517
16919.2105	1069.89517
16938.2461	1069.89517
16957.5843	1069.89517
16976.9982	1069.89517
16996.3021	1069.89517
17016.0163	1069.89517
17034.9764	1069.89517
17054.2691	1069.89517
17073.6462	1069.89518
17093.1225	1069.89518
17112.3818	1069.89518
17131.8017	1069.89517
17151.169	1069.89518
17170.3575	1069.89518
17189.9739	1069.89518
17221.2462	1069.89518
17240.88	1069.89518
17260.6498	1069.89518
17279.9172	1069.89518
17299.4821	1069.89518
17318.6158	1069.89518
17338.1334	1069.89518
17358.4156	1069.89519
17377.7691	1069.89518
17397.0416	1069.89518
17416.6335	1069.89518
17436.0183	1069.89519
17455.5626	1069.89519
17475.1438	1069.89519
17495.2681	1069.89519
17514.8979	1069.89519
17534.8983	1069.89519
17555.132	1069.89519
17574.5473	1069.89519
17593.7681	1069.89519
17613.7579	1069.89519
17634.0222	1069.89519
17653.2697	1069.89519
17672.8835	1069.89519
17692.384	1069.89519
17711.8913	1069.89519
17731.3848	1069.89519
17751.6552	1069.89519
17772.6072	1069.89519
17792.3493	1069.89519
17811.5984	1069.89519
17830.8828	1069.89519
17850.8911	1069.89520
17870.6282	1069.89519
17890.2914	1069.89520
17909.4543	1069.89520
17928.6661	1069.89520
17952.7909	1069.89520
17972.2905	1069.89520
17993.5156	1069.89520
18014.2093	1069.89520
18034.1673	1069.89520
18054.8976	1069.89520
18074.6027	1069.89520
18093.9494	1069.89520
18113.3151	1069.89520
18132.9215	1069.89520
18152.8859	1069.89520
18172.1505	1069.89520
18193.5406	1069.89521
18212.8932	1069.89520
18231.9414	1069.89521
18252.5158	1069.89521
18271.541	1069.89520
18290.6664	1069.89521
18309.8828	1069.89521
18333.6554	1069.89521
18360.351	1069.89521
18379.8384	1069.89521
18399.0883	1069.89521
18418.0039	1069.89521
18437.4151	1069.89521
18456.8008	1069.89521
18476.1408	1069.89521
18495.3957	1069.89521
18514.8802	1069.89521
18535.142	1069.89521
18555.2502	1069.89521
18575.2569	1069.89521
18596.0211	1069.89521
18615.366	1069.89521
18634.6216	1069.89521
18653.7342	1069.89521
18672.8512	1069.89521
18695.7069	1069.89521
18715.141	1069.89521
18735.3938	1069.89521
18754.5497	1069.89522
18773.5136	1069.89522
18792.6198	1069.89522
18811.428	1069.89522
18830.3573	1069.89522
18850.3842	1069.89521
18870.564	1069.89522
18890.3826	1069.89522
18909.6327	1069.89522
18928.3825	1069.89522
18947.2922	1069.89522
18967.5253	1069.89522
18987.471	1069.89522
19007.0815	1069.89522
19026.2663	1069.89522
19045.5398	1069.89522
19064.6194	1069.89522
19084.5401	1069.89522
19104.1486	1069.89522
19123.0143	1069.89522
19142.1415	1069.89522
19161.3891	1069.89523
19180.6419	1069.89523
19200.8923	1069.89522
19221.253	1069.89522
19241.1707	1069.89523
19260.4146	1069.89522
19279.3857	1069.89523
19298.3806	1069.89522
19317.3894	1069.89523
19336.6385	1069.89523
19355.8904	1069.89523
19375.0633	1069.89522
19393.8822	1069.89523
19412.7196	1069.89523
19431.7445	1069.89523
19450.7652	1069.89523
19469.9143	1069.89523
19488.8814	1069.89523
19510.039	1069.89523
19529.4708	1069.89523
19548.6641	1069.89523
19567.7239	1069.89523
19587.3796	1069.89523
19606.6132	1069.89523
19625.6645	1069.89523
19644.7655	1069.89523
19664.1398	1069.89523
19683.9248	1069.89523
19703.6607	1069.89523
19724.0128	1069.89523
19743.0143	1069.89523
19762.0876	1069.89523
19793.5126	1069.89523
19835.0811	1069.89523
19866.0953	1069.89523
19886.6742	1069.89523
19906.7658	1069.89523
19925.9794	1069.89523
19945.1639	1069.89524
19965.2548	1069.89523
19984.3105	1069.89523
20003.1632	1069.89524
20023.139	1069.89523
20044.2369	1069.89524
20063.8778	1069.89524
20083.7067	1069.89523
20105.1304	1069.89524
20124.2985	1069.89524
20144.8713	1069.89524
20164.1318	1069.89524
20184.1144	1069.89523
20205.3804	1069.89524
20227.6137	1069.89524
20247.184	1069.89524
20267.0302	1069.89524
20286.9574	1069.89524
20306.0125	1069.89524
20325.3045	1069.89524
20344.501	1069.89524
20364.0052	1069.89524
20384.247	1069.89524
20404.1896	1069.89524
20423.6627	1069.89524
20443.1634	1069.89524
20462.5385	1069.89524
20481.5808	1069.89524
20500.7551	1069.89524
20519.9807	1069.89524
20539.3845	1069.89524
20559.012	1069.89524
20578.5096	1069.89524
20598.0392	1069.89524
20618.2659	1069.89524
20638.1223	1069.89524
20657.7634	1069.89525
20676.9141	1069.89525
20697.3281	1069.89525
20717.4022	1069.89524
20737.2841	1069.89525
20756.7651	1069.89525
20776.0115	1069.89525
20795.4131	1069.89525
20814.7641	1069.89525
20835.4212	1069.89525
20858.512	1069.89525
20878.3801	1069.89525
20897.4135	1069.89525
20917.5476	1069.89525
20937.1221	1069.89525
20956.4125	1069.89525
20975.9703	1069.89525
20997.8788	1069.89525
21018.2874	1069.89525
21038.0802	1069.89525
21060.1397	1069.89525
21079.3288	1069.89525
21098.4132	1069.89525
21117.6411	1069.89525
21136.8524	1069.89525
21160.2537	1069.89525
21179.3788	1069.89525
21198.9926	1069.89526
21217.954	1069.89525
21237.0124	1069.89525
21260.6633	1069.89525
21279.7866	1069.89525
21299.1721	1069.89525
21318.2038	1069.89525
21337.9512	1069.89525
21359.8813	1069.89525
21378.6387	1069.89525
21406.2633	1069.89526
21426.9003	1069.89525
21450.1675	1069.89526
21472.4121	1069.89525
21492.038	1069.89525
21511.9329	1069.89525
21531.7637	1069.89526
21550.5478	1069.89526
21569.4519	1069.89526
21594.327	1069.89526
21613.8468	1069.89526
21633.884	1069.89526
21652.8277	1069.89526
21673.7543	1069.89526
21705.3785	1069.89526
21725.2631	1069.89526
21744.7531	1069.89526
21763.7872	1069.89526
21784.1646	1069.89526
21803.143	1069.89526
21822.5789	1069.89526
21842.4802	1069.89526
21862.2609	1069.89526
21881.3873	1069.89526
21903.2962	1069.89526
21924.0109	1069.89526
21942.9198	1069.89526
21963.4618	1069.89526
21982.5171	1069.89526
22002.7645	1069.89526
22025.1238	1069.89526
22044.9506	1069.89526
22064.5007	1069.89526
22085.2629	1069.89526
22104.8128	1069.89526
